#  E (eV)   dos(E)     Int dos(E) EFermi =    6.631 eV
   6.000  0.1137E+02  0.1137E+00
   6.010  0.1608E+02  0.2745E+00
   6.020  0.1295E+02  0.4040E+00
   6.030  0.4668E+01  0.4507E+00
   6.040  0.3773E+01  0.4884E+00
   6.050  0.3929E+01  0.5277E+00
   6.060  0.1786E+01  0.5455E+00
   6.070  0.3761E+00  0.5493E+00
   6.080  0.2214E+01  0.5714E+00
   6.090  0.3868E+01  0.6101E+00
   6.100  0.2705E+01  0.6372E+00
   6.110  0.2245E+01  0.6596E+00
   6.120  0.2725E+01  0.6869E+00
   6.130  0.1441E+01  0.7013E+00
   6.140  0.2422E+01  0.7255E+00
   6.150  0.6779E+01  0.7933E+00
   6.160  0.5535E+01  0.8487E+00
   6.170  0.4207E+01  0.8907E+00
   6.180  0.4221E+01  0.9329E+00
   6.190  0.3876E+01  0.9717E+00
   6.200  0.7053E+01  0.1042E+01
   6.210  0.7100E+01  0.1113E+01
   6.220  0.6648E+01  0.1180E+01
   6.230  0.4420E+01  0.1224E+01
   6.240  0.2262E+01  0.1247E+01
   6.250  0.4456E+01  0.1291E+01
   6.260  0.3880E+01  0.1330E+01
   6.270  0.4485E+01  0.1375E+01
   6.280  0.3348E+01  0.1408E+01
   6.290  0.3448E+01  0.1443E+01
   6.300  0.2660E+01  0.1469E+01
   6.310  0.2351E+01  0.1493E+01
   6.320  0.4539E+01  0.1538E+01
   6.330  0.4758E+01  0.1586E+01
   6.340  0.4644E+01  0.1632E+01
   6.350  0.6854E+01  0.1701E+01
   6.360  0.9363E+01  0.1794E+01
   6.370  0.5793E+01  0.1852E+01
   6.380  0.2694E+01  0.1879E+01
   6.390  0.1486E+01  0.1894E+01
   6.400  0.1268E+01  0.1907E+01
   6.410  0.7130E+00  0.1914E+01
   6.420  0.1782E+01  0.1932E+01
   6.430  0.2059E+01  0.1952E+01
   6.440  0.2497E+01  0.1977E+01
   6.450  0.2957E+01  0.2007E+01
   6.460  0.2556E+01  0.2032E+01
   6.470  0.1003E+01  0.2042E+01
   6.480  0.2025E+01  0.2063E+01
   6.490  0.5576E+01  0.2118E+01
   6.500  0.4956E+01  0.2168E+01
   6.510  0.3466E+01  0.2203E+01
   6.520  0.4752E+01  0.2250E+01
   6.530  0.7515E+01  0.2325E+01
   6.540  0.5861E+01  0.2384E+01
   6.550  0.4814E+01  0.2432E+01
   6.560  0.3407E+01  0.2466E+01
   6.570  0.2201E+01  0.2488E+01
   6.580  0.4520E+01  0.2533E+01
   6.590  0.4462E+01  0.2578E+01
   6.600  0.3634E+01  0.2614E+01
   6.610  0.5364E+01  0.2668E+01
   6.620  0.1153E+02  0.2783E+01
   6.630  0.1625E+02  0.2946E+01
   6.640  0.1618E+02  0.3108E+01
   6.650  0.1210E+02  0.3229E+01
   6.660  0.7330E+01  0.3302E+01
   6.670  0.7044E+01  0.3372E+01
   6.680  0.4851E+01  0.3421E+01
   6.690  0.5956E+01  0.3480E+01
   6.700  0.7003E+01  0.3551E+01
   6.710  0.5388E+01  0.3604E+01
   6.720  0.3652E+01  0.3641E+01
   6.730  0.7007E+01  0.3711E+01
   6.740  0.8850E+01  0.3799E+01
   6.750  0.7012E+01  0.3870E+01
   6.760  0.5676E+01  0.3926E+01
   6.770  0.5209E+01  0.3978E+01
   6.780  0.4953E+01  0.4028E+01
   6.790  0.8471E+01  0.4113E+01
   6.800  0.7789E+01  0.4191E+01
   6.810  0.3943E+01  0.4230E+01
   6.820  0.4730E+01  0.4277E+01
   6.830  0.4099E+01  0.4318E+01
   6.840  0.6072E+01  0.4379E+01
   6.850  0.5738E+01  0.4436E+01
   6.860  0.5336E+01  0.4490E+01
   6.870  0.5008E+01  0.4540E+01
   6.880  0.5060E+01  0.4590E+01
   6.890  0.4157E+01  0.4632E+01
   6.900  0.1978E+01  0.4652E+01
   6.910  0.5310E+00  0.4657E+01
   6.920  0.9467E+00  0.4667E+01
   6.930  0.4244E+01  0.4709E+01
   6.940  0.5655E+01  0.4766E+01
   6.950  0.2238E+01  0.4788E+01
   6.960  0.8938E+00  0.4797E+01
   6.970  0.1286E+01  0.4810E+01
   6.980  0.1349E+01  0.4823E+01
   6.990  0.1929E+01  0.4843E+01
   7.000  0.1261E+01  0.4855E+01
   7.010  0.1735E+01  0.4872E+01
   7.020  0.3884E+01  0.4911E+01
   7.030  0.5133E+01  0.4963E+01
   7.040  0.6370E+01  0.5026E+01
   7.050  0.3231E+01  0.5059E+01
   7.060  0.2167E+01  0.5080E+01
   7.070  0.2657E+01  0.5107E+01
   7.080  0.4683E+01  0.5154E+01
   7.090  0.4249E+01  0.5196E+01
   7.100  0.3327E+01  0.5229E+01
   7.110  0.3855E+01  0.5268E+01
   7.120  0.2696E+01  0.5295E+01
   7.130  0.1969E+01  0.5315E+01
   7.140  0.2329E+01  0.5338E+01
   7.150  0.2668E+01  0.5365E+01
   7.160  0.2078E+01  0.5385E+01
   7.170  0.1774E+01  0.5403E+01
   7.180  0.1900E+01  0.5422E+01
   7.190  0.2534E+01  0.5448E+01
   7.200  0.4207E+01  0.5490E+01
   7.210  0.4435E+01  0.5534E+01
   7.220  0.2217E+01  0.5556E+01
   7.230  0.8249E+00  0.5564E+01
   7.240  0.2543E+01  0.5590E+01
   7.250  0.6023E+01  0.5650E+01
   7.260  0.8271E+01  0.5733E+01
   7.270  0.8263E+01  0.5815E+01
   7.280  0.8989E+01  0.5905E+01
   7.290  0.1143E+02  0.6020E+01
   7.300  0.1166E+02  0.6136E+01
   7.310  0.8134E+01  0.6218E+01
   7.320  0.6740E+01  0.6285E+01
   7.330  0.6981E+01  0.6355E+01
   7.340  0.3903E+01  0.6394E+01
   7.350  0.5375E+01  0.6448E+01
   7.360  0.9392E+01  0.6541E+01
   7.370  0.8840E+01  0.6630E+01
   7.380  0.8427E+01  0.6714E+01
   7.390  0.9110E+01  0.6805E+01
   7.400  0.6390E+01  0.6869E+01
   7.410  0.1036E+02  0.6973E+01
   7.420  0.1543E+02  0.7127E+01
   7.430  0.1642E+02  0.7291E+01
   7.440  0.1922E+02  0.7484E+01
   7.450  0.1721E+02  0.7656E+01
   7.460  0.4421E+01  0.7700E+01
   7.470  0.2391E+01  0.7724E+01
   7.480  0.3053E+01  0.7754E+01
   7.490  0.2519E+01  0.7779E+01
   7.500  0.2737E+01  0.7807E+01
   7.510  0.3388E+01  0.7841E+01
   7.520  0.2966E+01  0.7870E+01
   7.530  0.3314E+01  0.7903E+01
   7.540  0.2879E+01  0.7932E+01
   7.550  0.2400E+01  0.7956E+01
   7.560  0.2608E+01  0.7982E+01
   7.570  0.3810E+01  0.8020E+01
   7.580  0.2261E+01  0.8043E+01
   7.590  0.2433E+01  0.8067E+01
   7.600  0.5096E+01  0.8118E+01
   7.610  0.5187E+01  0.8170E+01
   7.620  0.3450E+01  0.8205E+01
   7.630  0.1179E+01  0.8216E+01
   7.640  0.5275E+00  0.8222E+01
   7.650  0.1239E+01  0.8234E+01
   7.660  0.5228E+00  0.8239E+01
   7.670  0.5929E+00  0.8245E+01
   7.680  0.2247E+01  0.8268E+01
   7.690  0.2431E+01  0.8292E+01
   7.700  0.1859E+01  0.8311E+01
   7.710  0.3113E+01  0.8342E+01
   7.720  0.2482E+01  0.8367E+01
   7.730  0.7398E+00  0.8374E+01
   7.740  0.1201E+01  0.8386E+01
   7.750  0.7718E+00  0.8394E+01
   7.760  0.9552E+00  0.8403E+01
   7.770  0.1494E+01  0.8418E+01
   7.780  0.1422E+01  0.8432E+01
   7.790  0.9646E+00  0.8442E+01
   7.800  0.2387E+01  0.8466E+01
   7.810  0.2308E+01  0.8489E+01
   7.820  0.1213E+01  0.8501E+01
   7.830  0.1927E+00  0.8503E+01
   7.840  0.2113E+00  0.8505E+01
   7.850  0.2161E+01  0.8527E+01
   7.860  0.3909E+01  0.8566E+01
   7.870  0.2083E+01  0.8587E+01
   7.880  0.4248E+00  0.8591E+01
   7.890  0.3734E+00  0.8595E+01
   7.900  0.1950E+01  0.8614E+01
   7.910  0.3469E+01  0.8649E+01
   7.920  0.2466E+01  0.8674E+01
   7.930  0.7342E+00  0.8681E+01
   7.940  0.1138E+01  0.8692E+01
   7.950  0.8771E+00  0.8701E+01
   7.960  0.9211E+00  0.8710E+01
   7.970  0.1085E+01  0.8721E+01
   7.980  0.5287E+00  0.8726E+01
   7.990  0.1734E+01  0.8744E+01
   8.000  0.3612E+01  0.8780E+01
   8.010  0.4634E+01  0.8826E+01
   8.020  0.3685E+01  0.8863E+01
   8.030  0.1277E+01  0.8876E+01
   8.040  0.8912E-01  0.8877E+01
   8.050  0.3599E-01  0.8877E+01
   8.060  0.5783E+00  0.8883E+01
   8.070  0.1631E+01  0.8899E+01
   8.080  0.2312E+01  0.8922E+01
   8.090  0.4248E+01  0.8965E+01
   8.100  0.4632E+01  0.9011E+01
   8.110  0.2879E+01  0.9040E+01
   8.120  0.1297E+01  0.9053E+01
   8.130  0.1421E+01  0.9067E+01
   8.140  0.2353E+01  0.9091E+01
   8.150  0.2449E+01  0.9115E+01
   8.160  0.5009E+01  0.9165E+01
   8.170  0.5296E+01  0.9218E+01
   8.180  0.5282E+01  0.9271E+01
   8.190  0.6775E+01  0.9339E+01
   8.200  0.5012E+01  0.9389E+01
   8.210  0.1446E+01  0.9403E+01
   8.220  0.9015E-01  0.9404E+01
   8.230  0.8998E-01  0.9405E+01
   8.240  0.8415E+00  0.9414E+01
   8.250  0.1077E+01  0.9424E+01
   8.260  0.2746E+00  0.9427E+01
   8.270  0.8443E+00  0.9436E+01
   8.280  0.1077E+01  0.9446E+01
   8.290  0.1877E+00  0.9448E+01
   8.300  0.7797E-01  0.9449E+01
   8.310  0.7804E+00  0.9457E+01
   8.320  0.1144E+01  0.9468E+01
   8.330  0.6902E+00  0.9475E+01
   8.340  0.1245E+01  0.9488E+01
   8.350  0.4471E+00  0.9492E+01
   8.360  0.2691E+00  0.9495E+01
   8.370  0.1188E+01  0.9507E+01
   8.380  0.1284E+01  0.9519E+01
   8.390  0.1297E+01  0.9532E+01
   8.400  0.6603E+00  0.9539E+01
   8.410  0.1512E+01  0.9554E+01
   8.420  0.2122E+01  0.9575E+01
   8.430  0.2514E+01  0.9600E+01
   8.440  0.2026E+01  0.9621E+01
   8.450  0.3209E+00  0.9624E+01
   8.460  0.7625E-02  0.9624E+01
   8.470  0.2603E-04  0.9624E+01
   8.480  0.1249E-07  0.9624E+01
   8.490  0.8280E-12  0.9624E+01
   8.500  0.7521E-17  0.9624E+01
   8.510  0.9306E-23  0.9624E+01
   8.520  0.1564E-29  0.9624E+01
   8.530  0.3563E-37  0.9624E+01
   8.540  0.1100E-45  0.9624E+01
   8.550  0.4596E-55  0.9624E+01
   8.560  0.2600E-65  0.9624E+01
   8.570  0.1991E-76  0.9624E+01
   8.580  0.4372E-83  0.9624E+01
   8.590  0.4372E-83  0.9624E+01
   8.600  0.4372E-83  0.9624E+01
   8.610  0.4372E-83  0.9624E+01
   8.620  0.4372E-83  0.9624E+01
   8.630  0.4372E-83  0.9624E+01
   8.640  0.4372E-83  0.9624E+01
   8.650  0.4372E-83  0.9624E+01
   8.660  0.4372E-83  0.9624E+01
   8.670  0.4372E-83  0.9624E+01
   8.680  0.4372E-83  0.9624E+01
   8.690  0.4372E-83  0.9624E+01
   8.700  0.4372E-83  0.9624E+01
   8.710  0.4372E-83  0.9624E+01
   8.720  0.4372E-83  0.9624E+01
   8.730  0.4372E-83  0.9624E+01
   8.740  0.4458E-83  0.9624E+01
   8.750  0.5012E-73  0.9624E+01
   8.760  0.3805E-62  0.9624E+01
   8.770  0.3909E-52  0.9624E+01
   8.780  0.5435E-43  0.9624E+01
   8.790  0.1023E-34  0.9624E+01
   8.800  0.2604E-27  0.9624E+01
   8.810  0.8976E-21  0.9624E+01
   8.820  0.4187E-15  0.9624E+01
   8.830  0.2644E-10  0.9624E+01
   8.840  0.2262E-06  0.9624E+01
   8.850  0.2633E-03  0.9624E+01
   8.860  0.4233E-01  0.9624E+01
   8.870  0.9970E+00  0.9634E+01
   8.880  0.4229E+01  0.9677E+01
   8.890  0.5241E+01  0.9729E+01
   8.900  0.2765E+01  0.9757E+01
   8.910  0.2434E+01  0.9781E+01
   8.920  0.2730E+01  0.9808E+01
   8.930  0.2379E+01  0.9832E+01
   8.940  0.1247E+01  0.9845E+01
   8.950  0.1545E+01  0.9860E+01
   8.960  0.2323E+01  0.9883E+01
   8.970  0.2500E+01  0.9908E+01
   8.980  0.3522E+01  0.9944E+01
   8.990  0.2242E+01  0.9966E+01
   9.000  0.2017E+01  0.9986E+01
   9.010  0.2490E+01  0.1001E+02
   9.020  0.3771E+01  0.1005E+02
   9.030  0.2615E+01  0.1007E+02
   9.040  0.9795E+00  0.1008E+02
   9.050  0.3730E+00  0.1009E+02
   9.060  0.1337E+01  0.1010E+02
   9.070  0.1773E+01  0.1012E+02
   9.080  0.2138E+01  0.1014E+02
   9.090  0.3901E+01  0.1018E+02
   9.100  0.3045E+01  0.1021E+02
   9.110  0.1016E+01  0.1022E+02
   9.120  0.1246E+01  0.1023E+02
   9.130  0.6048E+00  0.1024E+02
   9.140  0.2049E+00  0.1024E+02
   9.150  0.1091E+01  0.1025E+02
   9.160  0.2065E+01  0.1027E+02
   9.170  0.4179E+01  0.1031E+02
   9.180  0.2920E+01  0.1034E+02
   9.190  0.1336E+01  0.1036E+02
   9.200  0.2768E+01  0.1038E+02
   9.210  0.4387E+01  0.1043E+02
   9.220  0.3477E+01  0.1046E+02
   9.230  0.3264E+01  0.1050E+02
   9.240  0.5376E+01  0.1055E+02
   9.250  0.3525E+01  0.1058E+02
   9.260  0.7519E+00  0.1059E+02
   9.270  0.1397E+01  0.1061E+02
   9.280  0.3827E+01  0.1064E+02
   9.290  0.5047E+01  0.1070E+02
   9.300  0.3380E+01  0.1073E+02
   9.310  0.2602E+01  0.1075E+02
   9.320  0.3000E+01  0.1078E+02
   9.330  0.4984E+01  0.1083E+02
   9.340  0.3461E+01  0.1087E+02
   9.350  0.7029E+00  0.1088E+02
   9.360  0.1066E+00  0.1088E+02
   9.370  0.1498E+01  0.1089E+02
   9.380  0.5045E+01  0.1094E+02
   9.390  0.4694E+01  0.1099E+02
   9.400  0.2807E+01  0.1102E+02
   9.410  0.1572E+01  0.1103E+02
   9.420  0.1473E+01  0.1105E+02
   9.430  0.1552E+01  0.1106E+02
   9.440  0.2118E+01  0.1109E+02
   9.450  0.1706E+01  0.1110E+02
   9.460  0.1633E+01  0.1112E+02
   9.470  0.2170E+01  0.1114E+02
   9.480  0.2195E+01  0.1116E+02
   9.490  0.4152E+01  0.1120E+02
   9.500  0.7440E+01  0.1128E+02
   9.510  0.3348E+01  0.1131E+02
   9.520  0.2028E+01  0.1133E+02
   9.530  0.3579E+01  0.1137E+02
   9.540  0.5897E+01  0.1143E+02
   9.550  0.5117E+01  0.1148E+02
   9.560  0.4123E+01  0.1152E+02
   9.570  0.5835E+01  0.1158E+02
   9.580  0.3807E+01  0.1162E+02
   9.590  0.1020E+01  0.1163E+02
   9.600  0.2606E+01  0.1165E+02
   9.610  0.5663E+01  0.1171E+02
   9.620  0.4035E+01  0.1175E+02
   9.630  0.5539E+01  0.1180E+02
   9.640  0.5965E+01  0.1186E+02
   9.650  0.3899E+01  0.1190E+02
   9.660  0.3531E+01  0.1194E+02
   9.670  0.4070E+01  0.1198E+02
   9.680  0.4967E+01  0.1203E+02
   9.690  0.6122E+01  0.1209E+02
   9.700  0.6266E+01  0.1215E+02
   9.710  0.5538E+01  0.1221E+02
   9.720  0.4470E+01  0.1225E+02
   9.730  0.3994E+01  0.1229E+02
   9.740  0.4404E+01  0.1234E+02
   9.750  0.3533E+01  0.1237E+02
   9.760  0.4383E+01  0.1242E+02
   9.770  0.4737E+01  0.1246E+02
   9.780  0.6376E+01  0.1253E+02
   9.790  0.1092E+02  0.1264E+02
   9.800  0.1012E+02  0.1274E+02
   9.810  0.8120E+01  0.1282E+02
   9.820  0.4391E+01  0.1286E+02
   9.830  0.4106E+01  0.1290E+02
   9.840  0.5477E+01  0.1296E+02
   9.850  0.6160E+01  0.1302E+02
   9.860  0.6421E+01  0.1308E+02
   9.870  0.3817E+01  0.1312E+02
   9.880  0.2725E+01  0.1315E+02
   9.890  0.6267E+01  0.1321E+02
   9.900  0.7337E+01  0.1329E+02
   9.910  0.2775E+01  0.1331E+02
   9.920  0.5798E+00  0.1332E+02
   9.930  0.2741E+01  0.1335E+02
   9.940  0.5778E+01  0.1340E+02
   9.950  0.3324E+01  0.1344E+02
   9.960  0.2463E+01  0.1346E+02
   9.970  0.3869E+01  0.1350E+02
   9.980  0.5253E+01  0.1355E+02
   9.990  0.4284E+01  0.1360E+02
  10.000  0.3554E+01  0.1363E+02
  10.010  0.4477E+01  0.1368E+02
  10.020  0.3327E+01  0.1371E+02
  10.030  0.2992E+01  0.1374E+02
  10.040  0.4385E+01  0.1378E+02
  10.050  0.3577E+01  0.1382E+02
  10.060  0.2638E+01  0.1385E+02
  10.070  0.2132E+01  0.1387E+02
  10.080  0.1920E+01  0.1389E+02
  10.090  0.2442E+01  0.1391E+02
  10.100  0.1816E+01  0.1393E+02
  10.110  0.1242E+01  0.1394E+02
  10.120  0.1342E+01  0.1395E+02
  10.130  0.2327E+01  0.1398E+02
  10.140  0.4435E+01  0.1402E+02
  10.150  0.4880E+01  0.1407E+02
  10.160  0.4240E+01  0.1411E+02
  10.170  0.3445E+01  0.1415E+02
  10.180  0.5515E+01  0.1420E+02
  10.190  0.4958E+01  0.1425E+02
  10.200  0.1913E+01  0.1427E+02
  10.210  0.1862E+01  0.1429E+02
  10.220  0.1321E+01  0.1430E+02
  10.230  0.1058E+01  0.1431E+02
  10.240  0.3544E+01  0.1435E+02
  10.250  0.3009E+01  0.1438E+02
  10.260  0.2580E+01  0.1441E+02
  10.270  0.2135E+01  0.1443E+02
  10.280  0.2105E+01  0.1445E+02
  10.290  0.2334E+01  0.1447E+02
  10.300  0.2162E+01  0.1449E+02
  10.310  0.2870E+01  0.1452E+02
  10.320  0.5005E+01  0.1457E+02
  10.330  0.3738E+01  0.1461E+02
  10.340  0.2517E+01  0.1463E+02
  10.350  0.4615E+01  0.1468E+02
  10.360  0.2594E+01  0.1471E+02
  10.370  0.1362E+01  0.1472E+02
  10.380  0.4241E+00  0.1472E+02
  10.390  0.1346E+01  0.1474E+02
  10.400  0.3638E+01  0.1477E+02
  10.410  0.3155E+01  0.1481E+02
  10.420  0.1809E+01  0.1482E+02
  10.430  0.3558E+01  0.1486E+02
  10.440  0.3236E+01  0.1489E+02
  10.450  0.2194E+01  0.1491E+02
  10.460  0.3277E+01  0.1495E+02
  10.470  0.2379E+01  0.1497E+02
  10.480  0.1483E+01  0.1498E+02
  10.490  0.1542E+01  0.1500E+02
  10.500  0.2967E+01  0.1503E+02
  10.510  0.2946E+01  0.1506E+02
  10.520  0.3016E+01  0.1509E+02
  10.530  0.2743E+01  0.1512E+02
  10.540  0.3285E+01  0.1515E+02
  10.550  0.3999E+01  0.1519E+02
  10.560  0.1590E+01  0.1521E+02
  10.570  0.3872E+00  0.1521E+02
  10.580  0.1556E+01  0.1522E+02
  10.590  0.2469E+01  0.1525E+02
  10.600  0.2537E+01  0.1527E+02
  10.610  0.2279E+01  0.1530E+02
  10.620  0.2840E+01  0.1533E+02
  10.630  0.3090E+01  0.1536E+02
  10.640  0.4365E+01  0.1540E+02
  10.650  0.2214E+01  0.1542E+02
  10.660  0.7156E+00  0.1543E+02
  10.670  0.2210E+01  0.1545E+02
  10.680  0.3815E+01  0.1549E+02
  10.690  0.2115E+01  0.1551E+02
  10.700  0.2700E+00  0.1551E+02
  10.710  0.1273E+00  0.1552E+02
  10.720  0.1182E+01  0.1553E+02
  10.730  0.3652E+01  0.1556E+02
  10.740  0.6538E+01  0.1563E+02
  10.750  0.3554E+01  0.1566E+02
  10.760  0.9508E+00  0.1567E+02
  10.770  0.2691E+01  0.1570E+02
  10.780  0.2634E+01  0.1573E+02
  10.790  0.1770E+01  0.1575E+02
  10.800  0.2044E+01  0.1577E+02
  10.810  0.2381E+01  0.1579E+02
  10.820  0.1725E+01  0.1581E+02
  10.830  0.3303E+01  0.1584E+02
  10.840  0.3845E+01  0.1588E+02
  10.850  0.1413E+01  0.1589E+02
  10.860  0.1323E+01  0.1591E+02
  10.870  0.1460E+01  0.1592E+02
  10.880  0.4533E+01  0.1597E+02
  10.890  0.4597E+01  0.1601E+02
  10.900  0.2144E+01  0.1603E+02
  10.910  0.2194E+01  0.1605E+02
  10.920  0.4162E+01  0.1610E+02
  10.930  0.5650E+01  0.1615E+02
  10.940  0.3806E+01  0.1619E+02
  10.950  0.2666E+01  0.1622E+02
  10.960  0.3229E+01  0.1625E+02
  10.970  0.2014E+01  0.1627E+02
  10.980  0.1531E+01  0.1629E+02
  10.990  0.2284E+01  0.1631E+02
  11.000  0.2270E+01  0.1633E+02
  11.010  0.2761E+01  0.1636E+02
  11.020  0.5924E+01  0.1642E+02
  11.030  0.6546E+01  0.1648E+02
  11.040  0.4880E+01  0.1653E+02
  11.050  0.4424E+01  0.1658E+02
  11.060  0.2838E+01  0.1660E+02
  11.070  0.1665E+01  0.1662E+02
  11.080  0.1502E+01  0.1664E+02
  11.090  0.1775E+01  0.1665E+02
  11.100  0.3872E+01  0.1669E+02
  11.110  0.4372E+01  0.1674E+02
  11.120  0.8975E+00  0.1675E+02
  11.130  0.9348E+00  0.1675E+02
  11.140  0.2738E+01  0.1678E+02
  11.150  0.3769E+01  0.1682E+02
  11.160  0.3087E+01  0.1685E+02
  11.170  0.3135E+01  0.1688E+02
  11.180  0.4974E+01  0.1693E+02
  11.190  0.2865E+01  0.1696E+02
  11.200  0.4559E+00  0.1696E+02
  11.210  0.7703E+00  0.1697E+02
  11.220  0.3621E+01  0.1701E+02
  11.230  0.7012E+01  0.1708E+02
  11.240  0.5225E+01  0.1713E+02
  11.250  0.3934E+01  0.1717E+02
  11.260  0.3745E+01  0.1721E+02
  11.270  0.3279E+01  0.1724E+02
  11.280  0.2837E+01  0.1727E+02
  11.290  0.3174E+01  0.1730E+02
  11.300  0.1385E+01  0.1731E+02
  11.310  0.1529E+00  0.1732E+02
  11.320  0.8946E-01  0.1732E+02
  11.330  0.8603E+00  0.1733E+02
  11.340  0.1800E+01  0.1734E+02
  11.350  0.3024E+01  0.1737E+02
  11.360  0.2885E+01  0.1740E+02
  11.370  0.2243E+01  0.1743E+02
  11.380  0.1757E+01  0.1744E+02
  11.390  0.1192E+01  0.1745E+02
  11.400  0.1731E+01  0.1747E+02
  11.410  0.2858E+01  0.1750E+02
  11.420  0.3104E+01  0.1753E+02
  11.430  0.2683E+01  0.1756E+02
  11.440  0.2153E+01  0.1758E+02
  11.450  0.2466E+01  0.1760E+02
  11.460  0.4184E+01  0.1765E+02
  11.470  0.5397E+01  0.1770E+02
  11.480  0.5495E+01  0.1776E+02
  11.490  0.5149E+01  0.1781E+02
  11.500  0.3406E+01  0.1784E+02
  11.510  0.1927E+01  0.1786E+02
  11.520  0.1384E+01  0.1787E+02
  11.530  0.2467E+01  0.1790E+02
  11.540  0.1853E+01  0.1792E+02
  11.550  0.2233E+01  0.1794E+02
  11.560  0.3914E+01  0.1798E+02
  11.570  0.3412E+01  0.1801E+02
  11.580  0.6461E+00  0.1802E+02
  11.590  0.6674E-01  0.1802E+02
  11.600  0.9886E+00  0.1803E+02
  11.610  0.3704E+01  0.1807E+02
  11.620  0.5126E+01  0.1812E+02
  11.630  0.4345E+01  0.1816E+02
  11.640  0.4351E+01  0.1821E+02
  11.650  0.4429E+01  0.1825E+02
  11.660  0.5223E+01  0.1830E+02
  11.670  0.3263E+01  0.1833E+02
  11.680  0.2230E+01  0.1836E+02
  11.690  0.1880E+01  0.1838E+02
  11.700  0.2564E+01  0.1840E+02
  11.710  0.2607E+01  0.1843E+02
  11.720  0.3288E+01  0.1846E+02
  11.730  0.4804E+01  0.1851E+02
  11.740  0.6330E+01  0.1857E+02
  11.750  0.3718E+01  0.1861E+02
  11.760  0.8714E+00  0.1862E+02
  11.770  0.1246E+01  0.1863E+02
  11.780  0.4975E+00  0.1863E+02
  11.790  0.1662E+00  0.1864E+02
  11.800  0.1693E+01  0.1865E+02
  11.810  0.4327E+01  0.1870E+02
  11.820  0.3575E+01  0.1873E+02
  11.830  0.3489E+01  0.1877E+02
  11.840  0.5155E+01  0.1882E+02
  11.850  0.7342E+01  0.1889E+02
  11.860  0.5106E+01  0.1894E+02
  11.870  0.3640E+01  0.1898E+02
  11.880  0.3912E+01  0.1902E+02
  11.890  0.3923E+01  0.1906E+02
  11.900  0.3443E+01  0.1909E+02
  11.910  0.2283E+01  0.1912E+02
  11.920  0.1408E+01  0.1913E+02
  11.930  0.2359E+01  0.1915E+02
  11.940  0.1621E+01  0.1917E+02
  11.950  0.1753E+01  0.1919E+02
  11.960  0.2643E+01  0.1921E+02
  11.970  0.2217E+01  0.1924E+02
  11.980  0.2227E+01  0.1926E+02
  11.990  0.1412E+01  0.1927E+02
  12.000  0.1467E+01  0.1929E+02
